# Instrument-source: 'FullInstrument_v4_elastic_resolution.instr'
# Date: Wed Nov 10 12 02 2021
# Ncount: 10000000
# Numpoints: 146
# Param: pds_dist = 0.05
# type: multiarray_1d(146)
# title: Scan of pds_dist
# xlabel: 'pds_dist'
# ylabel: 'Intensity'
# xvars: pds_dist
# yvars: (Vir_SlitMonitor_I,Vir_SlitMonitor_ERR) (SlitMonitor_I,SlitMonitor_ERR) (BackEndMonitor_I,BackEndMonitor_ERR) (psd_tube1_1_1_I,psd_tube1_1_1_ERR) (psd_tube1_1_2_I,psd_tube1_1_2_ERR) (psd_tube1_1_3_I,psd_tube1_1_3_ERR) (psd_tube1_1_4_I,psd_tube1_1_4_ERR) (psd_tube1_1_5_I,psd_tube1_1_5_ERR) (psd_tube1_1_6_I,psd_tube1_1_6_ERR) (psd_tube1_1_7_I,psd_tube1_1_7_ERR) (psd_tube1_2_1_I,psd_tube1_2_1_ERR) (psd_tube1_2_2_I,psd_tube1_2_2_ERR) (psd_tube1_2_3_I,psd_tube1_2_3_ERR) (psd_tube1_2_4_I,psd_tube1_2_4_ERR) (psd_tube1_2_5_I,psd_tube1_2_5_ERR) (psd_tube1_2_6_I,psd_tube1_2_6_ERR)
# xlimits: 0.05 1.5
# filename: mccode.dat
# variables: pds_dist Vir_SlitMonitor_I Vir_SlitMonitor_ERR SlitMonitor_I SlitMonitor_ERR BackEndMonitor_I BackEndMonitor_ERR psd_tube1_1_1_I psd_tube1_1_1_ERR psd_tube1_1_2_I psd_tube1_1_2_ERR psd_tube1_1_3_I psd_tube1_1_3_ERR psd_tube1_1_4_I psd_tube1_1_4_ERR psd_tube1_1_5_I psd_tube1_1_5_ERR psd_tube1_1_6_I psd_tube1_1_6_ERR psd_tube1_1_7_I psd_tube1_1_7_ERR psd_tube1_2_1_I psd_tube1_2_1_ERR psd_tube1_2_2_I psd_tube1_2_2_ERR psd_tube1_2_3_I psd_tube1_2_3_ERR psd_tube1_2_4_I psd_tube1_2_4_ERR psd_tube1_2_5_I psd_tube1_2_5_ERR psd_tube1_2_6_I psd_tube1_2_6_ERR
0.05 4.79263E+8 296301 9.01681E+6 40524.1 8.09922E+6 3740.58 2551.65 205.096 3231.33 233.058 2863.76 219.969 2867.24 221.642 3036.8 226.379 2878.29 220.19 3296.17 238.409 2419.1 204.886 2621 210.102 2654.03 213.607 2543.52 207.839 2614.03 209.089 2843.1 220.137
0.06 4.79325E+8 296277 9.06097E+6 40641.9 8.13769E+6 3753.67 3019.69 228.265 3096.8 228.699 3297.93 240.209 2984.57 224.625 3184.63 233.986 3275.5 237.358 3299.84 237.127 2645.2 211.179 2844.52 219.746 2768.85 216.277 2619.87 212.408 2764.11 216.957 2714.21 215.284
0.07 4.79939E+8 296486 8.99085E+6 40471.3 8.05902E+6 3732.47 2831.44 220.346 2907.49 221.986 3127.84 229.011 3261.85 233.143 3104.33 228.93 2758.9 216.421 3375.1 238.809 2556.07 211.248 2165.07 189.612 2510.79 208.045 2871.6 222.557 2418.81 204.636 2665.58 214.555
0.08 4.79688E+8 296376 9.0077E+6 40485.1 8.09182E+6 3739.6 2856.1 215.745 2946.77 224.099 2931.55 222.025 2823.15 219.799 3206.17 234.499 3499.57 241.435 2783.11 214.393 2447.01 204.747 2412.42 204.38 2497.89 207.347 2365.04 199.036 2636.63 210.824 2769.81 215.45
0.09 4.79496E+8 296357 9.08283E+6 40643.8 8.1506E+6 3751.41 2805.79 217.005 2928.45 223.401 2963.52 224.245 2948.91 222.048 3419.7 242.009 3302.27 235.095 3253.02 237.484 2539.5 207.259 2226.46 192.097 2829.71 221.814 2565.79 207.977 1784.71 174.44 2931.97 223.023
0.10 4.79694E+8 296421 8.98507E+6 40456.7 8.06185E+6 3733.58 2884.88 223.859 3261.6 236.069 2661.13 212.296 3254.53 235.746 3320.5 239.659 3450.5 243.717 2925.55 221.483 2166.83 190.329 2609.33 209.1 2656.44 212.983 2364.53 198.163 2709.56 213.726 2833.61 217.767
0.11 4.79439E+8 296311 8.9946E+6 40447.4 8.06429E+6 3731.95 2788.09 217.755 3156.58 233.169 2979.11 228.28 3418.9 241.159 3182.95 232.397 2815.93 217.438 2664.94 213.325 2500.19 206.345 2675.67 214.534 2281.02 195.78 2341.6 197.653 2713.41 214.853 2341.57 200.35
0.12 4.79356E+8 296277 8.99856E+6 40454.4 8.07217E+6 3732.59 2854.99 222.93 2935.87 223.719 3123.23 228.793 3110.29 226.847 3166.2 231.862 3368.06 239.612 3010.56 225.947 2528.24 207.004 2892.78 223.637 2686.82 213.082 3010.39 229.266 2832.42 219.839 2725.18 215.179
0.13 4.79628E+8 296370 9.03709E+6 40560.6 8.10502E+6 3741.37 2875.45 220.884 3339.28 237.269 2943.9 223.401 3219.59 233.492 3337.58 239.123 3277.01 234.572 3306.43 238.216 2563.76 209.955 2457.67 203.704 2364.24 200.316 3094.03 230.52 3041.02 228.531 2670.04 212.133
0.14 4.7994E+8 296487 9.08029E+6 40660.7 8.14549E+6 3751.81 2568.63 208.197 2979.12 223.931 3195.61 233.442 3288.37 236.861 2947.31 224.444 2737.14 214.509 3232.45 238.288 2285.29 198.225 2273.55 195.267 2683.61 215.972 2350.27 197.98 2486.38 208.475 2822.16 220.062
0.15 4.79091E+8 296210 8.9323E+6 40312.3 8.01749E+6 3721.14 2579.3 212.451 2783.52 214.856 3210.11 233.874 2959.34 224.831 3237.73 234.858 3398.89 238.91 3572.53 247.486 2361.58 199.945 1957.96 184.103 2445.58 203.21 2781.61 216.456 2876.68 222.235 2775.36 219.164
0.16 4.79489E+8 296336 9.04029E+6 40558.6 8.11016E+6 3741.67 2969.65 226.523 3153.53 232.612 3305.21 236.173 3122.46 233.063 3049.36 226.959 3133.75 232.228 3216.4 233.9 2360.94 198.967 2924.1 224.579 2601.69 207.656 2734.88 217.043 2877.01 219.776 2605.68 213.598
0.17 4.79683E+8 296397 8.9936E+6 40469.1 8.0824E+6 3737.87 2822.45 217.099 3349.14 239.075 3028.61 226.133 3356.76 243.11 3395.38 241.02 2968.49 225.006 3257.18 234.42 2493.1 205.342 2677.82 214.03 2621.12 210.672 2763.68 219.884 2573.33 209.906 2250.69 195.843
0.18 4.79975E+8 296514 9.00696E+6 40510.4 8.07087E+6 3736.93 2810.83 219.546 2941.84 223.166 2780.46 215.565 3382.31 240.634 3141.05 230.316 3049.2 227.545 3032.45 228.733 2531.9 209.841 2530.14 209.083 2886.03 223.375 2609.53 211.119 2848.06 221.463 2660.99 212.598
0.19 4.79257E+8 296257 9.07376E+6 40645.4 8.14189E+6 3750.72 2980.19 224.673 3328.61 238.576 2983.55 225.449 2837.78 219.458 3052.73 223.961 3196.55 233.897 3060.47 228.486 2067.06 187.304 2174.77 191.681 2267.64 192.052 2731.06 217.997 2780.37 218.42 2868.95 217.95
0.20 4.8E+8 296478 9.08327E+6 40655.5 8.15765E+6 3751.29 3284.24 233.776 3468.46 243.838 3081.11 228.858 3185.35 232.695 3425.02 238.926 3437.86 243.379 2972.98 222.98 2862.32 220.988 2646.77 211.219 2667.37 210.511 3010.96 226.966 2503.46 207.302 2387.72 201.551
0.21 4.79645E+8 296378 8.98274E+6 40457.4 8.05366E+6 3732.04 2733.38 215.773 3380.85 239.975 3259.54 237.14 2716.95 215.714 3203.58 233.952 3047.46 227.37 2826.36 219.292 2339.89 196.848 2381.38 202.567 2559.08 208.353 2949.33 225.618 2853.24 225.446 2998.32 224.692
0.22 4.79133E+8 296220 9.06408E+6 40612.2 8.12745E+6 3745.28 2993.76 226.918 2777.36 216.015 3363.25 241.27 2926.98 222.382 3347.37 238.515 3153.35 231.633 3084.78 228.947 2888.81 223.047 2529.69 207.207 2381.92 202.007 2745.4 215.694 2732.41 217.25 2672.85 214.051
0.23 4.796E+8 296346 9.04787E+6 40572.8 8.11581E+6 3743.53 2812.1 217.621 3165.69 228.423 3322.02 238.385 3234.34 231.924 3313.33 237.26 3327.99 239.211 3427.45 238.546 2693.22 214.912 2389.92 200.087 2511.13 206.06 2508.53 206.576 2626.72 211.056 2754.68 215.534
0.24 4.79377E+8 296302 8.99659E+6 40477.1 8.05513E+6 3731.05 2978.07 222.574 2948.16 224.73 2970.93 226.833 2950.46 223.429 3303.55 237.528 3420.01 244.161 3470.63 242.554 2780.71 215.283 2686.01 212.538 2795.22 219.816 2825.94 221.341 2820.81 220.107 2420.69 203.196
0.25 4.79698E+8 296420 9.04519E+6 40569.3 8.11047E+6 3742.35 2870.87 219.158 3180.11 233.16 3220.95 235.418 3181.73 230.917 3152.65 231.429 3510.1 242.519 3294.6 238.113 2402.83 203.683 2884.19 221.302 2425.77 199.021 2333.37 196.538 2771.91 219.303 2712.71 215.095
0.26 4.79078E+8 296248 9.03705E+6 40543.7 8.10912E+6 3740.14 3152.03 231.369 3063.89 228.749 3244.28 236.756 3296.53 235.151 2977.56 221.87 3146.84 230.87 3070.44 229.009 2594.08 207.474 2644.78 213.735 2374.08 201.029 2358.1 198.065 2691.42 213.875 2729.42 215.567
0.27 4.79486E+8 296366 8.89661E+6 40230.7 7.97004E+6 3708.89 2560.25 208.952 3044.35 225.995 3247.93 238.09 3343.34 237.666 2934 220.488 3612.03 249.346 3018.27 226.165 2385 200.355 2551.67 207.382 2339.77 196.706 2810.4 220.232 2814.81 219.618 2676.29 215.704
0.28 4.79534E+8 296389 9.05759E+6 40613 8.12443E+6 3746.97 2850.55 221.412 3173.73 231.126 3138.04 230.98 3185.81 234.398 2964.25 223.486 3087.47 227.557 3433.26 238.311 2333.87 199.832 2294.84 194.854 2491.87 205.374 2701.92 215.178 2706.19 216.054 2383.18 199.612
0.29 4.795E+8 296345 9.03172E+6 40524.3 8.10507E+6 3740.49 2388.18 199.803 2788.97 217.197 2966.25 227.205 2950.3 224.283 3023.59 228.475 3152.79 233.293 3709.37 249.81 2283.78 194.377 2596.31 212.176 2599.46 208.483 2633.8 212.17 2903.19 220.498 3129.79 231.301
0.30 4.79394E+8 296335 9.03222E+6 40542.8 8.10917E+6 3741.3 3047.8 227.063 3147.18 229.776 3486.19 245.885 3540.45 246.41 3191.48 233.57 2918.27 223.553 3713.69 251.283 2206.09 194.168 2363.23 200.592 2606.79 212.749 2770.13 216.939 2347.27 198.619 2873.19 222.015
0.31 4.79474E+8 296354 9.00024E+6 40494.4 8.09086E+6 3740.19 3322.75 236.69 2898.51 225.428 3298.83 232.967 3191.64 234.896 3138.76 230.647 3285.9 235.833 3087.44 230.816 2279.28 196.306 2755.67 215.498 2940.08 224.664 2510.04 206.386 2521.74 203.808 2801.23 215.265
0.32 4.79805E+8 296469 9.03559E+6 40580.3 8.10203E+6 3743.42 3163.33 232.811 3004.99 226.229 3369.25 240.344 2986.42 225.691 3307.99 235.769 3354.71 242.32 3146.93 232.8 2340.11 199.893 3121.72 234.404 2232.76 193.535 2679.37 215.027 2978.47 225.717 2309.22 195.86
0.33 4.79255E+8 296245 9.0827E+6 40650.1 8.14834E+6 3750.25 2827.4 215.416 2765.58 214.925 3166.06 231.486 2947.71 224.199 3494.89 243.815 3418.98 241.734 3344.45 240.636 2591.72 212.093 2499.37 204.755 2516.61 205.774 2976.31 226.924 2655.55 212.693 2700.38 211.911
0.34 4.79618E+8 296358 9.04902E+6 40570.6 8.1076E+6 3740.02 2972.02 223.668 2796.43 222.078 3309.13 237.453 3617.81 251.411 3331.83 239.625 3644.27 249.122 3101.67 230.138 2416.24 201.889 2288.15 197.214 2780.54 215.658 2780.71 217.96 2860.48 221.358 2438.55 200.743
0.35 4.79538E+8 296371 9.05235E+6 40587.1 8.12097E+6 3745.05 3101.56 229.877 3138.12 229.683 3007.67 228.139 2980.35 224.515 3234.48 236.421 3686.91 250.464 3237.68 232.461 2785.1 214.652 2498.09 206.776 2671.3 214.05 2908.49 224.005 2738.9 216.667 2759.2 217.564
0.36 4.79615E+8 296373 9.00742E+6 40517.8 8.08964E+6 3740.23 2889.23 224.653 2913.69 222.236 2638.02 211.928 3332.52 238.505 3195.64 235.197 3162.9 231.82 3132.75 228.694 2184.21 193.035 2269.68 198.237 2577.82 208.084 2079.19 190.409 2613.96 211.269 2394.26 201.934
0.37 4.79106E+8 296221 9.02974E+6 40534.5 8.11306E+6 3742.31 3308.95 237.399 2661.34 213.465 3394.67 238.18 3556.47 247.557 2924.93 223.347 2988.97 223.773 2980.28 223.8 2873.95 220.388 2657.71 211.702 2924.07 222.354 2604.64 213.2 2123.93 187.647 2906.91 222.652
0.38 4.79954E+8 296510 9.09107E+6 40688.4 8.17114E+6 3757.84 2794.64 217.878 3179.38 230.089 3005.2 225.895 3209.76 232.818 3252.01 235.412 3381.25 242.874 3559.56 246.275 2330.48 197.974 2232.48 193.523 2464.09 205.464 2657.01 213.234 2731.47 212.866 2424.32 202.108
0.39 4.79869E+8 296472 9.08816E+6 40693.1 8.16064E+6 3757.19 2986.54 224.036 2883.24 221.199 3102.84 228.74 3315.47 237.35 3568.65 246.884 2903.77 219.402 3518.27 245.449 2530.18 208.752 2421.23 205.409 2833.22 219.822 2394.39 201.823 2579.25 208.141 2984.91 226.261
0.40 4.79347E+8 296307 9.05866E+6 40601.9 8.1242E+6 3743.91 3205.33 233.567 3248.37 231.743 3253.7 234.394 2874.23 218.068 3001.1 225.698 3003.5 225.697 3636.53 249.872 2547.06 205.428 2536.88 205.592 2482.21 205.247 2488.48 205.091 2686.81 212.822 2735.84 217.856
0.41 4.79848E+8 296477 9.06468E+6 40614.7 8.11303E+6 3742.09 2711.32 214.321 3025.87 226.442 2866.13 219.783 3302.7 234.986 3174.52 233.105 3343.32 240.948 2906.63 224.053 2331.09 198.858 3006.65 228.53 2668.84 214.987 2755.4 216.323 2603.43 212.465 2422.62 201.984
0.42 4.79589E+8 296359 9.03666E+6 40552.5 8.11434E+6 3742.25 2704.24 214.887 3299.66 236.069 2966.04 224.609 2601.02 208.623 3051.94 227.464 3795.33 253.425 3397.72 239.332 2463.58 203.774 2801.51 217.094 2696.22 214.172 2755.56 214.588 2934.32 222.526 2754.87 215.118
0.43 4.79567E+8 296394 9.13612E+6 40792.2 8.18418E+6 3760.94 2745.2 216.392 2670.43 211.287 3122.02 230.008 3018.84 225.082 2943.37 223.433 3312.62 237.923 3409.55 240.577 2650.66 214.397 2405.2 202.19 2829.85 220.684 2701.18 215.363 2575.1 209.208 2794.36 218.007
0.44 4.79554E+8 296357 9.01869E+6 40525.7 8.08819E+6 3738.32 2697.2 211.738 2558.63 207.545 2849.07 220.947 3024.08 226.938 3536.35 248.249 3501.35 243.43 3465.64 242.891 2765.07 217.527 2153.47 191.634 2689.83 212.64 2528.4 210.993 2483.12 204.777 2505.51 205.506
0.45 4.79209E+8 296250 9.00035E+6 40470.9 8.07733E+6 3734.89 2771.78 217.667 3148.52 233.368 3471.83 245.648 3057.49 227.126 2941.25 221.947 3206.08 232.008 3301.81 236.649 2335.71 201.92 2301.56 198.618 2519 207.117 2722.65 214.927 2531.62 206.436 2763.69 215.798
0.46 4.79708E+8 296403 9.02807E+6 40526.7 8.09438E+6 3737.91 3156.36 231.217 3034.19 225.416 2947.83 225.114 3087.35 229.052 2832.05 222.354 2987.34 224.424 3556.6 245.186 2655.98 211.858 2821.19 219.743 2938.9 225.433 2699.12 213.107 2662.68 213.31 2690.9 213.654
0.47 4.79234E+8 296296 8.99631E+6 40474.8 8.0819E+6 3737.29 2864.4 224.741 2560.38 205.53 3320.8 236.713 3413.39 240.777 3127.81 229.099 3533.94 242.646 3713.85 252.853 2305.36 197.931 2740.34 214.45 2401.45 201.567 2855.33 218.654 2843.14 219.336 2833.04 219.952
0.48 4.79604E+8 296375 9.04575E+6 40590.9 8.11652E+6 3745.42 2996.76 224.98 3083.56 230.554 2999.89 224.279 3296.08 238.725 3533.83 247.05 3191.94 233.061 2896.82 222.081 2461.2 204.506 2795.09 214.94 2477.18 207.36 2737.01 214.178 2520.76 206.165 2821.86 219.145
0.49 4.79557E+8 296386 8.91459E+6 40283.3 8.00316E+6 3717.46 3100.45 225.232 2338.64 199.964 3085.47 228.779 3207.56 235.001 2991.36 226.74 3150.65 233.791 3080.51 227.77 2159 188.399 2394.24 203.675 2730.28 217.43 2955.46 223.786 2664.15 213.9 2841.3 219.359
0.50 4.79702E+8 296388 9.01304E+6 40496.7 8.07239E+6 3734.82 3294.63 235.835 3152.22 231.914 3176.24 233.676 2773.16 217.841 3019.24 225.642 2928.91 225.343 2897.11 222.079 2563.57 208.782 2747.27 219.735 2779.49 218.12 3022.37 226.545 2501.41 206 2873.43 218.595
0.51 4.79238E+8 296268 9.06295E+6 40640.7 8.12828E+6 3749.83 2925.02 224.207 2938.83 224.689 3071.59 229.174 3397.56 241.868 2923.86 222.242 3350.92 241.218 3509.95 243.288 2469.86 203.413 2397.78 200.889 2572 209.236 2483 207.597 2755.68 214.1 2563.66 208.038
0.52 4.79296E+8 296283 9.04055E+6 40565.7 8.11541E+6 3744.57 2586.66 211.388 2961.51 222.266 3195.39 233.582 3095.53 225.626 2952.37 224.41 3693.31 252.773 3500.63 245.477 2150.48 192.865 2303.63 196.018 2939.69 223.505 2555.24 210.24 3025.42 230.168 2652.39 213.318
0.53 4.79478E+8 296352 9.05521E+6 40580.5 8.1184E+6 3742.4 2617.96 211.732 2911.14 220.183 3207.07 234.615 2851.19 224.668 3127.34 231.941 3263.18 237.557 2999.46 224.834 2209.11 190.777 2909.42 223.168 2646.43 211.857 2853.63 221.131 2770.06 217.835 2295.64 196.821
0.54 4.7972E+8 296408 9.04505E+6 40578.6 8.12843E+6 3747.61 2677.71 211.965 3086.4 225.579 3225.15 234.257 3187.71 233.523 3200.88 234.792 2981.26 224.066 3319.27 237.732 2694.18 212.972 2626.7 211.203 2355.08 198.889 2806.41 219.073 2626.53 212.341 2740.01 218.206
0.55 4.7952E+8 296381 9.18246E+6 40901.4 8.2374E+6 3773.61 2697.54 215.034 3025.69 227.339 3201.56 235.315 3068.44 228.316 3183.75 231.584 3610.49 247.887 3083.89 228.568 2497.49 207.494 2632.89 212.172 2536.55 209.274 2650.67 210.702 2421.37 202.358 3307.41 236.825
0.56 4.79231E+8 296269 9.00018E+6 40462.7 8.06954E+6 3731.18 2993.65 227.192 3015.9 224.233 3072.12 228.613 3403.32 238.144 3069.44 228.074 3495.07 244.129 3249.48 234.39 2500.72 207.431 2561.05 208.438 2400.34 204.21 2610.97 210.013 2867.54 219.838 2812.11 219.712
0.57 4.7958E+8 296389 9.0193E+6 40516.7 8.09133E+6 3738.51 2552.71 207.994 2914.83 222.559 2645.07 211.25 3104.3 229.473 3170.27 231.404 3006.45 222.939 3555.92 247.893 2118.55 186.601 2361.52 200.886 2664 214.171 2828.67 219.648 2742.84 215.578 2580.22 209.672
0.58 4.79927E+8 296484 9.01436E+6 40492.2 8.08977E+6 3737.62 3284.16 236.934 2978.22 224.721 3187.6 234.924 3246.9 236.753 3115.3 227.916 3453.65 242.431 3932.61 259.297 2794.31 217.682 2690.05 212.324 2561.38 210.206 2615.82 210.652 2565.79 211.295 2675.64 211.852
0.59 4.79551E+8 296358 9.10666E+6 40690.8 8.16054E+6 3752.44 2851.35 221.978 3207.95 235.411 3413.36 242.652 3612.47 249.884 3052.68 227.002 3323.23 236.723 2954.47 224.74 2791.5 216.402 2575.17 207.516 2423.45 200.758 2363.2 197.662 2858.72 219.528 2840.02 220.101
0.60 4.79468E+8 296320 9.05362E+6 40612.6 8.12963E+6 3747.9 3026.72 229.589 2846.79 219.364 3006.3 228.051 3171.41 231.794 3081.94 227.925 3549.85 244.923 3773.39 256.354 2488.71 208.58 2478.22 207.601 2218.02 195.965 2878 220.95 2865.61 218.537 2562.91 207.055
0.61 4.79625E+8 296391 9.03008E+6 40538.4 8.09449E+6 3737.65 2775.07 212.929 2807.52 218.086 3343.82 238.639 2956.67 225.251 2788.01 217.972 3545.65 245.814 3256.84 235.661 2511.08 204.804 2898.53 224.784 2589.99 213.399 2672.34 211.504 2483.93 202.529 3016.63 227.718
0.62 4.79636E+8 296410 8.97562E+6 40407.3 8.05354E+6 3729.02 2707.32 214.525 2906.08 222.7 3186.2 234.777 3459.11 242.293 3110.24 230.08 3182.62 232.169 2840.58 219.767 2697.31 215.944 2604.64 208.685 2915.65 222.425 2534.74 206.032 2417.8 202.209 2345.14 199.584
0.63 4.79327E+8 296300 9.07683E+6 40649.1 8.14362E+6 3750.72 3380.21 241.779 2997.14 227.733 3001.17 225.55 2976.99 225.026 3503.25 242.191 3153.11 231.223 3423.83 239.684 2400.55 202.151 2697.42 216.352 2493.9 205.258 2813.73 219.72 2765.81 216.156 2397.33 200.897
0.64 4.79742E+8 296420 9.04365E+6 40555.9 8.10691E+6 3741.07 2889.03 220.764 3328.08 238.033 2860.84 217.244 3040.99 229.447 3214.04 233.091 3327.08 237.634 3104.22 230.402 2501.26 207.796 2507.64 206.662 2409.85 198.64 2575.41 211.052 2565.35 206.308 2094.29 187.428
0.65 4.79363E+8 296307 9.09616E+6 40710.8 8.16238E+6 3757.38 2620.12 212.423 3084.52 229.599 3343.09 239.168 2857.83 217.859 2848.22 221.05 3409.76 238.681 3272.82 237.247 2478.1 206.021 2723.05 213.447 3023.13 226.831 2718.81 215.868 2625.75 212.05 2737.19 213.432
0.66 4.79462E+8 296326 8.99186E+6 40455.7 8.07868E+6 3735.78 2422.95 201.371 3272.82 234.709 3505.04 246.584 3107.18 232.69 3203.88 233.052 3244.66 234.888 3307.31 236.79 2682.6 213.476 2402.71 203.444 2725.84 214.484 2347.32 197.184 2782.46 220.04 2796.23 216.161
0.67 4.79377E+8 296305 9.03773E+6 40515.8 8.11219E+6 3739.57 2805.11 220.522 3515.18 247.463 2822.23 219.024 3183.03 232.291 3064.05 227.948 3133.64 228.906 3257.79 239.028 2602.55 210.847 2289.83 196.007 2814.84 217.406 2384.05 201.206 2827.86 219.632 2837.12 217.45
0.68 4.79573E+8 296354 9.03112E+6 40551.7 8.10762E+6 3742.76 2790.15 217.357 3003.6 227.52 3120.32 231.325 3113.82 228.511 3100.09 230.831 3002.29 225.865 3025 227.216 2250.79 195.261 2463.1 204.127 2938.67 225.217 2402.33 202.338 3068.42 232.622 3005.87 225.673
0.69 4.79323E+8 296286 9.04212E+6 40566.3 8.11541E+6 3744.33 2726.62 214.927 2939.71 223.78 2928.47 223.45 3338.09 238.985 3200.13 230.654 3391.8 241.31 3035.07 227.105 2401.47 201.145 2718.22 215.597 2670.96 214.669 2938.2 225.548 2915.66 223.016 2542.53 206.735
0.70 4.7954E+8 296346 9.03916E+6 40586.8 8.12564E+6 3748.52 2945.29 219.786 3247.43 234.851 3294.65 237.059 3505.68 247.987 3317.24 236.932 3297.36 236.28 3150.84 232.851 2767.81 214.65 2834.98 219.962 2427.8 203.331 3345.4 241.54 2491.55 204.364 2587.46 210.17
0.71 4.79169E+8 296241 8.99626E+6 40472.3 8.07392E+6 3735.05 2636.51 211.586 2994.84 223.992 2850.78 219.028 3064.94 228.368 3034.63 227.492 3304.76 239.975 3402.64 241.082 2084.64 188.239 2743.02 215.771 2575.27 210.38 2436.37 201.138 2566.91 208.597 2989.35 224.62
0.72 4.79612E+8 296374 9.06636E+6 40620.1 8.13442E+6 3748.82 2721.01 214.981 2736.11 218.788 2702.59 210.487 2864.37 217.326 3630.42 249.717 3615.45 247.555 3122.43 229.006 2131.29 190.442 2451.94 204.578 3002.76 226.46 2875.51 220.918 2902.45 224.094 2767.72 218.567
0.73 4.79496E+8 296374 8.98973E+6 40452.7 8.06785E+6 3732.48 3100.83 231.737 2735.23 217.445 3102.94 230.673 3256.41 234.82 3028.82 226.712 3395.43 238.872 3340.09 238.599 2483 204.984 2452.83 205.117 2468.46 204.813 2435.06 203.682 2198.53 191.585 2601.42 208.571
